time (s)	coil I (A)	last det (V)	int current (uC)
1451.932632	1.105503	0.499637	484.210297
1451.933762	1.567002	0.499637	2254.922363
1451.934649	1.545282	0.499637	3625.587402
1451.935514	1.506240	0.499637	4928.485352
1451.936586	1.458735	0.499637	6492.249512
1451.937549	1.418375	0.499637	7858.145020
1451.938470	1.381465	0.499637	9130.474609
1451.939338	0.865605	0.499637	9881.820312
1451.940399	0.096552	0.499637	9984.261719
1451.941305	0.089872	0.499637	10065.685547
1451.942185	0.089967	0.499637	10144.856445
1451.943185	0.089919	0.499637	10234.775391
1451.944161	0.089890	0.499637	10322.507812
1451.945088	0.089974	0.499637	10405.914062
1451.945970	0.089938	0.499637	10485.239258
1451.946968	0.089967	0.499637	10575.026367
1451.947886	0.089956	0.499637	10657.606445
1451.948811	0.089993	0.499637	10740.849609
1452.990815	1.080513	0.502453	481.908630
1452.991689	1.559509	0.502453	1844.919678
1452.992561	1.555378	0.502453	3201.209717
1452.993585	1.511276	0.502453	4748.755859
1452.994500	1.468546	0.502453	6092.475586
1452.995431	1.429761	0.502453	7423.583008
1452.996298	1.392839	0.502453	8631.174805
1452.997343	1.059412	0.502453	9738.259766
1452.998240	0.131378	0.502453	9856.106445
1452.999119	0.089810	0.502453	9935.048828
1453.000124	0.089886	0.502453	10025.384766
1453.001046	0.089861	0.502453	10108.236328
1453.001967	0.089886	0.502453	10191.021484
1453.002830	0.089886	0.502453	10268.593750
1453.003871	0.089744	0.502453	10362.016602
1453.004749	0.089941	0.502453	10440.985352
1453.005621	0.089846	0.502453	10519.331055
1453.006581	0.089945	0.502453	10605.678711
1453.991104	1.049656	0.545774	449.252686
1453.991971	1.557521	0.545774	1799.623169
1453.992997	1.550830	0.545774	3390.774902
1453.993984	1.507031	0.545774	4878.214844
1453.994902	1.465788	0.545774	6223.808594
1453.995770	1.427256	0.545774	7462.666992
1453.996888	1.384761	0.545774	9010.829102
1453.997780	0.930168	0.545774	9840.539062
1453.998637	0.114478	0.545774	9938.646484
1453.999699	0.089949	0.545774	10034.171875
1454.000653	0.089832	0.545774	10119.871094
1454.001528	0.089941	0.545774	10198.570312
1454.002391	0.089960	0.545774	10276.205078
1454.003493	0.089941	0.545774	10375.320312
1454.004408	0.089960	0.545774	10457.633789
1454.005275	0.089886	0.545774	10535.565430
1454.006334	0.090062	0.545774	10630.941406
1454.007305	0.089960	0.545774	10718.291992
1454.998198	1.048337	0.546197	440.301727
1454.999229	1.563190	0.546197	2051.950195
1455.000258	1.544158	0.546197	3640.888672
1455.001157	1.503615	0.546197	4992.638184
1455.002103	1.461493	0.546197	6375.210449
1455.003171	1.416592	0.546197	7888.130859
1455.004122	1.378616	0.546197	9199.194336
1455.004992	0.761268	0.546197	9861.498047
1455.006052	0.093658	0.546197	9960.776367
1455.007049	0.089967	0.546197	10050.473633
1455.007933	0.090026	0.546197	10130.056641
1455.008798	0.089982	0.546197	10207.890625
1455.009870	0.089967	0.546197	10304.334961
1455.010793	0.089952	0.546197	10387.361328
1455.011663	0.089912	0.546197	10465.584961
1455.012623	0.089930	0.546197	10551.917969
1455.013633	0.089971	0.546197	10642.788086
1455.014532	0.089971	0.546197	10723.671875
1456.037320	1.066179	0.437561	465.920288
1456.038189	1.558824	0.437561	1820.538696
1456.039259	1.548739	0.437561	3477.689453
1456.040252	1.504391	0.437561	4971.549805
1456.041141	1.464324	0.437561	6273.333496
1456.042006	1.427032	0.437561	7507.716797
1456.043087	1.384523	0.437561	9004.385742
1456.044020	0.876511	0.437561	9822.170898
1456.044888	0.107607	0.437561	9915.574219
1456.045864	0.089978	0.437561	10003.392578
1456.046902	0.089949	0.437561	10096.759766
1456.047783	0.089952	0.437561	10176.007812
1456.048650	0.089996	0.437561	10254.034180
1456.049693	0.089934	0.437561	10347.834961
1456.050627	0.089949	0.437561	10431.846680
1456.051509	0.089989	0.437561	10511.216797
1456.052451	0.090029	0.437561	10596.024414
1456.053478	0.090022	0.437561	10688.476562
1457.020514	1.080655	0.508186	487.375610
1457.021376	1.559000	0.508186	1831.233887
1457.022420	1.548501	0.508186	3447.868652
1457.023447	1.503025	0.508186	4991.475098
1457.024342	1.462925	0.508186	6300.792969
1457.025310	1.422784	0.508186	7678.048340
1457.026374	1.379722	0.508186	9146.072266
1457.027296	0.736036	0.508186	9824.698242
1457.028167	0.097961	0.508186	9910.022461
1457.029238	0.090066	0.508186	10006.483398
1457.030233	0.089996	0.508186	10096.029297
1457.031130	0.089971	0.508186	10176.733398
1457.032104	0.090092	0.508186	10264.482422
1457.033150	0.090033	0.508186	10358.657227
1457.034062	0.090000	0.508186	10440.737305
1457.034926	0.089941	0.508186	10518.446289
1457.036018	0.089971	0.508186	10616.694336
1457.036992	0.089960	0.508186	10704.315430
1458.072717	1.131277	0.503170	571.294800
1458.073672	1.566317	0.503170	2067.127441
1458.074541	1.549995	0.503170	3414.073242
1458.075572	1.503937	0.503170	4964.631836
1458.076619	1.457490	0.503170	6490.624023
1458.077517	1.420016	0.503170	7765.798340
1458.078476	1.381729	0.503170	9090.875977
1458.079536	0.631388	0.503170	9760.147461
1458.080470	0.092644	0.503170	9846.676758
1458.081333	0.089952	0.503170	9924.305664
1458.082403	0.089989	0.503170	10020.593750
1458.083403	0.089905	0.503170	10110.498047
1458.084301	0.089919	0.503170	10191.246094
1458.085261	0.089985	0.503170	10277.631836
1458.086298	0.090040	0.503170	10371.003906
1458.087214	0.089996	0.503170	10453.440430
1458.088077	0.090037	0.503170	10531.141602
1458.089152	0.090051	0.503170	10627.946289
1459.048042	1.087097	0.532887	478.322754
1459.048996	1.563439	0.532887	1969.843384
1459.049924	1.550167	0.532887	3408.398437
1459.050790	1.511144	0.532887	4717.048828
1459.051763	1.468041	0.532887	6145.452148
1459.052726	1.427853	0.532887	7520.474609
1459.053624	1.390935	0.532887	8769.534180
1459.054572	1.015199	0.532887	9731.942383
1459.055650	0.110431	0.532887	9850.987305
1459.056647	0.089967	0.532887	9940.684570
1459.057526	0.089919	0.532887	10019.723633
1459.058490	0.090026	0.532887	10106.508789
1459.059549	0.089952	0.532887	10201.768555
1459.060459	0.090011	0.532887	10283.678711
1459.061327	0.089971	0.532887	10361.773437
1459.062386	0.090062	0.532887	10457.149414
1459.063382	0.089996	0.532887	10546.786133
1459.064276	0.089974	0.532887	10627.223633
1460.104832	1.095520	0.532243	541.186890
1460.105915	1.566365	0.532243	2237.560059
1460.106857	1.542301	0.532243	3690.407715
1460.107722	1.502952	0.532243	4990.460937
1460.108753	1.456959	0.532243	6492.585937
1460.109776	1.414461	0.532243	7939.579102
1460.110669	1.378616	0.532243	9170.682617
1460.111643	0.684060	0.532243	9836.957031
1460.112702	0.091527	0.532243	9933.883789
1460.113635	0.090000	0.532243	10017.853516
1460.114506	0.089949	0.532243	10096.199219
1460.115581	0.090026	0.532243	10192.976562
1460.116569	0.089952	0.532243	10281.849609
1460.117463	0.089967	0.532243	10362.280273
1460.118438	0.090029	0.532243	10450.058594
1460.119493	0.089982	0.532243	10544.989258
1460.120414	0.089945	0.532243	10627.829102
1460.121277	0.089938	0.532243	10705.445312
1461.079637	1.067355	0.598057	471.770782
1461.080501	1.558220	0.598057	1818.072998
1461.081546	1.548475	0.598057	3436.229736
1461.082610	1.501725	0.598057	5034.064941
1461.083518	1.460482	0.598057	6360.182617
1461.084396	1.423110	0.598057	7609.673340
1461.085446	1.381333	0.598057	9060.073242
1461.086462	0.680555	0.598057	9751.517578
1461.087356	0.095153	0.598057	9836.583984
1461.088338	0.089993	0.598057	9924.957031
1461.089381	0.090135	0.598057	10018.968750
1461.090298	0.090040	0.598057	10101.536133
1461.091160	0.090004	0.598057	10179.119141
1461.092234	0.090044	0.598057	10275.826172
1461.093230	0.089941	0.598057	10365.408203
1461.094127	0.090026	0.598057	10446.161133
1461.095119	0.090081	0.598057	10535.521484
1461.096159	0.089901	0.598057	10629.018555
1462.137165	1.074609	0.509024	464.231201
1462.138120	1.558945	0.509024	1953.023926
1462.139172	1.545352	0.509024	3578.733887
1462.140092	1.504237	0.509024	4962.631836
1462.140955	1.464353	0.509024	6226.368652
1462.142052	1.419434	0.509024	7783.487305
1462.143052	1.378993	0.509024	9162.480469
1462.143936	0.783472	0.509024	9855.069336
1462.144936	0.099335	0.509024	9954.404297
1462.145984	0.089850	0.509024	10048.567383
1462.146879	0.089996	0.509024	10129.114258
1462.147737	0.089938	0.509024	10206.281250
1462.148810	0.090092	0.509024	10302.949219
1462.149804	0.089989	0.509024	10392.398437
1462.150698	0.090022	0.509024	10472.877930
1462.151681	0.090011	0.509024	10561.358398
1462.152731	0.089989	0.509024	10655.846680
1462.153628	0.089974	0.509024	10736.553711
1463.110789	1.096897	0.617985	530.898132
1463.111687	1.561945	0.617985	1933.524414
1463.112568	1.552387	0.617985	3301.176758
1463.113489	1.512686	0.617985	4694.360352
1463.114406	1.469191	0.617985	6041.608398
1463.115349	1.429915	0.617985	7390.017578
1463.116244	1.393682	0.617985	8637.362305
1463.117165	1.164272	0.617985	9709.657227
1463.118130	0.155186	0.617985	9859.411133
1463.119055	0.089795	0.617985	9942.471680
1463.119930	0.090011	0.617985	10021.231445
1463.120885	0.089949	0.617985	10107.132812
1463.121833	0.089912	0.617985	10192.369141
1463.122757	0.090040	0.617985	10275.566406
1463.123620	0.089963	0.617985	10353.205078
1463.124587	0.089901	0.617985	10440.139648
1463.125509	0.089971	0.617985	10523.092773
1463.126405	0.090048	0.617985	10603.775391
1464.164574	1.116442	0.519836	511.330261
1464.165505	1.563746	0.519836	1967.177979
1464.166389	1.552163	0.519836	3339.290039
1464.167308	1.511364	0.519836	4728.233398
1464.168272	1.468066	0.519836	6143.449219
1464.169207	1.428842	0.519836	7479.416016
1464.170075	1.392993	0.519836	8688.534180
1464.171040	1.127684	0.519836	9776.750000
1464.171998	0.144829	0.519836	9915.496094
1464.172888	0.089861	0.519836	9995.472656
1464.173819	0.089982	0.519836	10079.246094
1464.174725	0.089941	0.519836	10160.733398
1464.175673	0.090033	0.519836	10246.084961
1464.176568	0.089934	0.519836	10326.576172
1464.177480	0.089916	0.519836	10408.579102
1464.178443	0.089872	0.519836	10495.125977
1464.179358	0.089897	0.519836	10577.381836
1464.180228	0.089960	0.519836	10655.646484
1465.144687	1.082318	0.653926	504.360260
1465.145576	1.560538	0.653926	1891.678833
1465.146489	1.551914	0.653926	3308.576416
1465.147436	1.509104	0.653926	4737.697754
1465.148387	1.466697	0.653926	6132.526367
1465.149284	1.429274	0.653926	7414.584961
1465.150203	1.391576	0.653926	8693.443359
1465.151160	1.093920	0.653926	9740.324219
1465.152094	0.133572	0.653926	9865.080078
1465.152959	0.089791	0.653926	9942.750000
1465.153943	0.089861	0.653926	10031.172852
1465.154892	0.089908	0.653926	10116.496094
1465.155784	0.089916	0.653926	10196.701172
1465.156680	0.089963	0.653926	10277.308594
1465.157607	0.089916	0.653926	10360.660156
1465.158539	0.089967	0.653926	10444.509766
1465.159420	0.089919	0.653926	10523.728516
1465.160396	0.089864	0.653926	10611.436523
1466.191555	1.057430	0.494352	456.809937
1466.192423	1.558019	0.494352	1809.170288
1466.193371	1.553068	0.494352	3281.478516
1466.194324	1.510759	0.494352	4721.231934
1466.195253	1.469183	0.494352	6086.103516
1466.196121	1.431497	0.494352	7328.642578
1466.197093	1.392572	0.494352	8682.222656
1466.198044	1.132833	0.494352	9759.546875
1466.198935	0.155468	0.494352	9898.068359
1466.199869	0.089864	0.494352	9982.001953
1466.200794	0.089923	0.494352	10065.180664
1466.201732	0.089901	0.494352	10149.507812
1466.202606	0.089938	0.494352	10228.113281
1466.203557	0.089769	0.494352	10313.483398
1466.204514	0.089916	0.494352	10399.533203
1466.205446	0.089945	0.494352	10483.362305
1466.206308	0.089886	0.494352	10560.844727
1466.207281	0.089835	0.494352	10648.253906
1467.184329	1.073214	0.584780	467.921387
1467.185201	1.557953	0.584780	1826.456299
1467.186183	1.551057	0.584780	3349.594238
1467.187110	1.510389	0.584780	4749.725098
1467.187998	1.470088	0.584780	6055.163086
1467.188945	1.431332	0.584780	7410.634277
1467.189882	1.391715	0.584780	8714.670898
1467.190822	1.110626	0.584780	9758.659180
1467.191711	0.151483	0.584780	9893.328125
1467.192639	0.089762	0.584780	9976.626953
1467.193577	0.089854	0.584780	10060.909180
1467.194503	0.089967	0.584780	10144.218750
1467.195379	0.089773	0.584780	10222.859375
1467.196338	0.090022	0.584780	10309.190430
1467.197288	0.089993	0.584780	10394.683594
1467.198185	0.089952	0.584780	10475.371094
1467.199080	0.089996	0.584780	10555.917969
1467.200017	0.089978	0.584780	10640.227539
1468.207061	1.078480	0.522116	475.609802
1468.207942	1.559520	0.522116	1849.547119
1468.208895	1.552833	0.522116	3329.397217
1468.209837	1.510990	0.522116	4752.750000
1468.210764	1.469062	0.522116	6114.570801
1468.211628	1.431566	0.522116	7351.443848
1468.212559	1.392418	0.522116	8647.785156
1468.213528	1.108491	0.522116	9721.913086
1468.214464	0.142603	0.522116	9855.388672
1468.215338	0.089824	0.522116	9933.895508
1468.216314	0.089868	0.522116	10021.606445
1468.217271	0.089912	0.522116	10107.652344
1468.218168	0.089923	0.522116	10188.313477
1468.219046	0.089934	0.522116	10267.275391
1468.219993	0.089824	0.522116	10352.338867
1468.220941	0.089927	0.522116	10437.589844
1468.221820	0.089927	0.522116	10516.635742
1468.222732	0.089956	0.522116	10598.675781
1469.226841	1.072679	0.511078	477.342346
1469.227719	1.559509	0.511078	1846.591553
1469.228644	1.552873	0.511078	3282.999512
1469.229578	1.511107	0.511078	4694.373535
1469.230501	1.469780	0.511078	6050.980957
1469.231391	1.432145	0.511078	7325.589844
1469.232310	1.394623	0.511078	8607.248047
1469.233276	1.164522	0.511078	9732.175781
1469.234211	0.153252	0.511078	9875.466797
1469.235076	0.089799	0.511078	9953.142578
1469.236055	0.089934	0.511078	10041.188477
1469.236979	0.090011	0.511078	10124.358398
1469.237904	0.089923	0.511078	10207.537109
1469.238767	0.089927	0.511078	10285.143555
1469.239713	0.089916	0.511078	10370.204102
1469.240656	0.089890	0.511078	10454.970703
1469.241545	0.089912	0.511078	10534.902344
1469.242457	0.089850	0.511078	10616.845703
1470.217951	1.077008	0.558922	497.577698
1470.218977	1.566398	0.558922	2104.701660
1470.219870	1.547604	0.558922	3486.711914
1470.220750	1.508500	0.558922	4814.191406
1470.221757	1.464543	0.558922	6288.986816
1470.222679	1.424301	0.558922	7602.191895
1470.223602	1.387317	0.558922	8882.685547
1470.224464	1.031162	0.558922	9771.546875
1470.225506	0.108827	0.558922	9884.944336
1470.226394	0.089828	0.558922	9964.711914
1470.227310	0.089978	0.558922	10047.131836
1470.228184	0.089908	0.558922	10125.711914
1470.229181	0.089938	0.558922	10215.379883
1470.230103	0.089934	0.558922	10298.298828
1470.230976	0.089930	0.558922	10376.807617
1470.232027	0.089927	0.558922	10471.320312
1470.232923	0.089886	0.558922	10551.858398
1470.233842	0.090007	0.558922	10634.575195
1471.273408	1.058829	0.532968	454.237823
1471.274289	1.558451	0.532968	1827.233032
1471.275253	1.552734	0.532968	3324.068848
1471.276180	1.511565	0.532968	4725.289551
1471.277107	1.469484	0.532968	6087.500977
1471.277981	1.432031	0.532968	7339.096191
1471.278953	1.392074	0.532968	8692.192383
1471.279907	1.098640	0.532968	9740.294922
1471.280826	0.141434	0.532968	9870.273437
1471.281706	0.089908	0.532968	9949.392578
1471.282674	0.089927	0.532968	10036.441406
1471.283619	0.089916	0.532968	10121.412109
1471.284511	0.089897	0.532968	10201.600586
1471.285422	0.089956	0.532968	10283.550781
1471.286360	0.089832	0.532968	10367.812500
1471.287285	0.089930	0.532968	10450.998047
1471.288168	0.089938	0.532968	10530.413086
1471.289098	0.089908	0.532968	10614.028320
1472.231917	1.103870	0.572047	523.234253
1472.232801	1.561124	0.572047	1903.268066
1472.233768	1.550178	0.572047	3402.290527
1472.234813	1.503541	0.572047	4973.491211
1472.235745	1.461815	0.572047	6335.902832
1472.236611	1.424308	0.572047	7569.353516
1472.237694	1.381652	0.572047	9065.682617
1472.238693	0.748246	0.572047	9813.180664
1472.239573	0.098203	0.572047	9899.599609
1472.240555	0.089996	0.572047	9987.975586
1472.241588	0.090026	0.572047	10080.971680
1472.242476	0.089894	0.572047	10160.797852
1472.243354	0.089967	0.572047	10239.789062
1472.244326	0.089982	0.572047	10327.250977
1472.245334	0.089890	0.572047	10417.860352
1472.246226	0.089982	0.572047	10498.124023
1472.247092	0.089938	0.572047	10576.009766
1472.248163	0.089982	0.572047	10672.379883
1473.314833	1.131855	0.496516	567.059570
1473.315734	1.564189	0.496516	1976.394287
1473.316669	1.549043	0.496516	3424.749512
1473.317539	1.508855	0.496516	4737.453125
1473.318597	1.462745	0.496516	6285.037598
1473.319486	1.425297	0.496516	7552.126465
1473.320374	1.389309	0.496516	8785.833008
1473.321377	0.970034	0.496516	9758.777344
1473.322307	0.113295	0.496516	9864.141602
1473.323228	0.089828	0.496516	9946.873047
1473.324094	0.089861	0.496516	10024.692383
1473.325126	0.089843	0.496516	10117.410156
1473.326006	0.089854	0.496516	10196.481445
1473.326871	0.089897	0.496516	10274.243164
1473.327793	0.089908	0.496516	10357.138672
1473.328774	0.089978	0.496516	10445.407227
1473.329698	0.089923	0.496516	10528.496094
1473.330578	0.089960	0.496516	10607.660156
1474.262088	1.059705	0.594758	459.911774
1474.262952	1.557012	0.594758	1805.169922
1474.264012	1.547878	0.594758	3445.920898
1474.265035	1.502490	0.594758	4982.968750
1474.265932	1.462299	0.594758	6294.650391
1474.266899	1.422264	0.594758	7669.979980
1474.267962	1.379194	0.594758	9136.063477
1474.268898	0.727625	0.594758	9817.120117
1474.269761	0.097749	0.594758	9901.477539
1474.270826	0.089974	0.594758	9997.299805
1474.271809	0.089901	0.594758	10085.672852
1474.272698	0.089890	0.594758	10165.584961
1474.273689	0.089813	0.594758	10254.589844
1474.274722	0.089934	0.594758	10347.492187
1474.275631	0.089857	0.594758	10429.171875
1474.276493	0.089916	0.594758	10506.679687
1474.277563	0.089916	0.594758	10602.889648
1474.278555	0.089956	0.594758	10692.125977
1475.332169	1.071962	0.506433	469.519196
1475.333034	1.557598	0.506433	1816.841064
1475.334130	1.546703	0.506433	3512.027344
1475.335116	1.502278	0.506433	4993.273437
1475.336011	1.462544	0.506433	6302.250000
1475.337005	1.421045	0.506433	7714.768555
1475.338060	1.378923	0.506433	9169.532227
1475.338963	0.746191	0.506433	9843.342773
1475.339822	0.098756	0.506433	9928.173828
1475.340931	0.089963	0.506433	10027.943359
1475.341892	0.089850	0.506433	10114.289062
1475.342758	0.090048	0.506433	10192.270508
1475.343636	0.089912	0.506433	10271.212891
1475.344739	0.089963	0.506433	10370.442383
1475.345644	0.089938	0.506433	10451.835937
1475.346515	0.089835	0.506433	10530.082031
1475.347564	0.089941	0.506433	10624.430664
1475.348529	0.089963	0.506433	10711.245117
1476.315460	1.058785	0.567732	454.218903
1476.316377	1.560308	0.567732	1885.020996
1476.317348	1.549358	0.567732	3389.447510
1476.318275	1.508771	0.567732	4788.078125
1476.319158	1.467909	0.567732	6084.241699
1476.320235	1.423506	0.567732	7617.357422
1476.321284	1.381461	0.567732	9066.509766
1476.322194	0.842567	0.567732	9833.246094
1476.323064	0.104209	0.567732	9923.908203
1476.324176	0.089982	0.567732	10023.967773
1476.325141	0.089861	0.567732	10110.683594
1476.326005	0.089952	0.567732	10188.402344
1476.327055	0.090059	0.567732	10282.963867
1476.328071	0.089905	0.567732	10374.306641
1476.328961	0.089989	0.567732	10454.396484
1476.329868	0.089949	0.567732	10535.980469
1476.330928	0.089854	0.567732	10631.225586
1476.331870	0.089788	0.567732	10715.805664
1477.339121	1.132980	0.550463	542.697327
1477.340080	1.564299	0.550463	2042.860352
1477.341011	1.547725	0.550463	3483.791992
1477.341880	1.508353	0.550463	4794.550781
1477.342861	1.465250	0.550463	6231.961426
1477.343824	1.424901	0.550463	7604.141113
1477.344734	1.387764	0.550463	8867.005859
1477.345669	1.021282	0.550463	9821.904297
1477.346594	0.118934	0.550463	9931.918945
